! FASCOD
          50  ! No.Levels in profiles
*HGT [km]
     2.000     2.500     3.000     3.500     4.000
     4.500     5.000     5.500     6.000     6.500
     7.000     7.500     8.000     8.500     9.000
     9.500    10.000    11.000    12.000    13.000
    14.000    15.000    16.000    17.000    18.000
    20.000    22.000    24.000    26.000    30.476
    34.952    39.429    43.905    48.381    52.857
    57.333    61.810    66.286    70.762    75.238
    79.714    84.190    88.667    93.143    97.619
   102.095   106.571   111.048   115.524   120.000
*PRE [mbar]
 8.033E+02 7.585E+02 7.162E+02 6.759E+02 6.370E+02
 5.997E+02 5.645E+02 5.301E+02 4.970E+02 4.663E+02
 4.368E+02 4.089E+02 3.828E+02 3.575E+02 3.342E+02
 3.116E+02 2.903E+02 2.507E+02 2.163E+02 1.850E+02
 1.570E+02 1.329E+02 1.116E+02 9.409E+01 7.935E+01
 5.689E+01 4.116E+01 3.003E+01 2.205E+01 1.132E+01
 5.980E+00 3.282E+00 1.841E+00 1.049E+00 5.964E-01
 3.348E-01 1.821E-01 9.545E-02 4.800E-02 2.353E-02
 1.147E-02 5.555E-03 2.619E-03 1.194E-03 5.444E-04
 2.501E-04 1.203E-04 6.188E-05 3.679E-05 2.449E-05
*TEM [K]
    285.99    285.99    283.96    281.05    278.20
    275.47    272.60    268.81    265.54    262.90
    260.26    257.64    254.32    250.69    246.91
    243.07    239.22    231.53    223.98    216.03
    208.08    201.37    197.28    197.90    200.18
    206.89    212.33    217.09    221.28    231.04
    244.67    256.38    264.93    268.00    264.08
    253.39    238.83    223.40    211.71    207.34
    206.94    202.34    191.87    187.12    187.06
    189.21    200.55    236.03    302.29    370.68
*H2O [ppmv]
 2.177E+02 2.177E+02 3.177E+02 4.446E+02 5.602E+02
 6.860E+02 7.957E+02 5.720E+02 2.348E+02 1.170E+02
 6.272E+01 8.003E+01 7.296E+01 5.450E+01 4.056E+01
 2.854E+01 2.582E+01 3.991E+01 1.679E+01 5.213E+00
 2.118E+00 1.044E+00 6.255E-01 5.700E-01 5.481E-01
 5.551E-01 5.942E-01 6.135E-01 6.177E-01 6.725E-01
 7.404E-01 8.114E-01 8.830E-01 9.382E-01 9.718E-01
 9.702E-01 9.126E-01 8.175E-01 7.231E-01 6.251E-01
 5.215E-01 4.444E-01 3.769E-01 3.177E-01 2.676E-01
 2.260E-01 1.926E-01 1.667E-01 1.488E-01 1.362E-01
*CO2 [ppmv]
 3.685E+02 3.685E+02 3.685E+02 3.685E+02 3.685E+02
 3.685E+02 3.685E+02 3.685E+02 3.685E+02 3.685E+02
 3.685E+02 3.685E+02 3.685E+02 3.685E+02 3.685E+02
 3.685E+02 3.685E+02 3.685E+02 3.685E+02 3.685E+02
 3.684E+02 3.680E+02 3.673E+02 3.663E+02 3.652E+02
 3.630E+02 3.630E+02 3.630E+02 3.630E+02 3.630E+02
 3.630E+02 3.630E+02 3.630E+02 3.630E+02 3.630E+02
 3.630E+02 3.630E+02 3.630E+02 3.607E+02 3.513E+02
 3.402E+02 3.242E+02 2.939E+02 2.463E+02 1.872E+02
 1.322E+02 9.588E+01 7.636E+01 5.970E+01 4.385E+01
*O3 [ppmv]
 2.612E-02 2.801E-02 2.989E-02 3.138E-02 3.287E-02
 3.409E-02 3.531E-02 3.631E-02 3.731E-02 3.789E-02
 3.847E-02 3.881E-02 3.914E-02 3.926E-02 3.939E-02
 3.947E-02 3.954E-02 3.972E-02 4.027E-02 4.137E-02
 4.341E-02 4.750E-02 5.720E-02 9.088E-02 2.007E-01
 7.443E-01 1.934E+00 3.835E+00 6.207E+00 9.304E+00
 8.580E+00 6.610E+00 4.364E+00 2.839E+00 2.077E+00
 1.614E+00 9.352E-01 4.641E-01 2.774E-01 1.944E-01
 1.973E-01 3.122E-01 5.974E-01 8.082E-01 7.865E-01
 5.020E-01 1.350E-01 2.784E-02 3.203E-03 4.005E-04
*N2O [ppmv]
 3.170E-01 3.170E-01 3.170E-01 3.170E-01 3.170E-01
 3.170E-01 3.170E-01 3.170E-01 3.170E-01 3.170E-01
 3.170E-01 3.170E-01 3.170E-01 3.170E-01 3.170E-01
 3.166E-01 3.162E-01 3.144E-01 3.125E-01 3.106E-01
 3.087E-01 3.067E-01 3.046E-01 3.026E-01 3.001E-01
 2.902E-01 2.802E-01 2.665E-01 2.499E-01 1.963E-01
 1.281E-01 6.771E-02 3.073E-02 1.132E-02 3.832E-03
 2.619E-03 1.900E-03 1.436E-03 1.117E-03 8.844E-04
 7.229E-04 6.032E-04 5.084E-04 4.313E-04 3.684E-04
 3.164E-04 2.725E-04 2.358E-04 2.065E-04 1.830E-04
*CO [ppmv]
 8.958E-02 8.800E-02 8.642E-02 8.464E-02 8.285E-02
 8.151E-02 8.016E-02 7.928E-02 7.840E-02 7.795E-02
 7.750E-02 7.722E-02 7.695E-02 7.679E-02 7.663E-02
 7.637E-02 7.612E-02 7.556E-02 7.424E-02 7.200E-02
 7.001E-02 6.014E-02 5.154E-02 4.425E-02 3.819E-02
 2.867E-02 2.309E-02 2.068E-02 1.920E-02 2.128E-02
 2.986E-02 6.670E-02 1.643E-01 3.004E-01 5.738E-01
 1.087E+00 2.079E+00 4.096E+00 8.600E+00 1.448E+01
 2.178E+01 3.066E+01 3.948E+01 4.778E+01 5.368E+01
 5.635E+01 5.753E+01 5.806E+01 5.829E+01 5.840E+01
*CH4 [ppmv]
 1.661E+00 1.661E+00 1.661E+00 1.660E+00 1.660E+00
 1.660E+00 1.660E+00 1.660E+00 1.661E+00 1.661E+00
 1.661E+00 1.661E+00 1.661E+00 1.661E+00 1.661E+00
 1.661E+00 1.661E+00 1.661E+00 1.661E+00 1.661E+00
 1.659E+00 1.648E+00 1.637E+00 1.616E+00 1.578E+00
 1.519E+00 1.478E+00 1.442E+00 1.386E+00 1.233E+00
 1.015E+00 7.748E-01 5.490E-01 3.790E-01 2.700E-01
 2.109E-01 1.695E-01 1.343E-01 1.048E-01 8.114E-02
 6.264E-02 4.828E-02 3.682E-02 2.777E-02 2.092E-02
 1.582E-02 1.216E-02 9.578E-03 7.943E-03 6.863E-03
*END
